//--------------------
//Multipak Exporter  1.2.0
//Load file from \var\www\html\dpfc_dataregistry\app\tmp\files\post\filename\10\MIDATA001.108.spe
//--------------------
//--------------------
//HEADER INFORMATION
Platform:PC
Technique:XPS
FileType:SPECTRUM
FileDesc:MIDATA001
SoftwareVersion:SS 3.6.1.16
InstrumentModel:PHI Quantera SXM
AcqFilename:C:\Datafiles\Yasufuku\20170606\MIDATA001.108.spe
FileDate:2017 6 6
AcqFileDate:2017 6 6
Institution:
Operator:
ExperimentID:20170606
AnalyserWorkFcn:4.250 eV
PlatenID:MIDATA001
PlatenDesc:
PhotoFilename:MIDATA001.101.pho
SXIFilename:
SourceAnalyserAngle:45.0 d
AnalyserSolidAngle:0.38 sr
EnergyRecal:no
SputterIon:Ar+
SputterCurrent:0.000 uA
SputterEnergy:1.000 kV
FloatVolt:0.0 V
SputterRaster:2.00 2.00 mm
AnalyserMode:FAT
SurvNumCycles:1
NoSpectralReg:1
SpectralRegDef:1 1 Su1s 111 2801 -0.5000 1380.0000 -20.0000 1379.0000 -19.0000 0.179640 280.00 AREA
SpectralRegDef2:1 1400.0 5 0 2 1
NoSpatialArea:1
SpatialAreaDef:1 HP1 4 (9343.5 -21406.3 24061.0 45.0 0.0) (10743.5 -21406.3 24061.0 45.0 0.0) (10743.5 -21306.3 24061.0 45.0 0.0) (9343.5 -21306.3 24061.0 45.0 0.0)
SpatialAreaDesc:1 #1 Ag foil
XraySource:Al 1486.6 mono
XrayPower:103.08 W
XrayBeamDiameter:100.0 um
XRayHighPower:yes
NeutralizerCurrent:20.0 uA
NeutralizerEnergy:1.40 V
StagePosition:10.1270 22.9872 24.0607 45.0000 0.0044


//Area comment,RegionNo,AtomicName,Area No,XLabel,YLabel,DataCount
#1 Ag foil
1
Su1s
1
Binding Energy(eV),reverse
Intensity(c/s)
2801
1380.0000	382804.5000
1379.5000	380099.0938
1379.0000	377087.5000
1378.5000	373023.8125
1378.0000	370797.1563
1377.5000	365703.6250
1377.0000	362564.0313
1376.5000	358973.5000
1376.0000	357097.5313
1375.5000	351786.9063
1375.0000	347038.5313
1374.5000	346303.7188
1374.0000	343999.0938
1373.5000	338827.6563
1373.0000	336896.0000
1372.5000	334251.8438
1372.0000	330639.0625
1371.5000	327928.0938
1371.0000	329464.5000
1370.5000	325734.8125
1370.0000	322700.9688
1369.5000	319917.6250
1369.0000	320741.4688
1368.5000	317017.3750
1368.0000	314701.6250
1367.5000	313187.5000
1367.0000	313243.1563
1366.5000	309686.0313
1366.0000	308166.3438
1365.5000	308912.2813
1365.0000	307615.2188
1364.5000	306813.6250
1364.0000	306618.7813
1363.5000	304213.9688
1363.0000	303785.3438
1362.5000	300940.7813
1362.0000	303785.3438
1361.5000	297923.6250
1361.0000	299404.3750
1360.5000	297840.1250
1360.0000	296320.4063
1359.5000	293754.1875
1359.0000	293514.8125
1358.5000	295869.5313
1358.0000	293342.2500
1357.5000	293715.2188
1357.0000	293397.9063
1356.5000	294806.2813
1356.0000	290870.6250
1355.5000	291538.6250
1355.0000	289618.1250
1354.5000	288148.5313
1354.0000	288449.1250
1353.5000	292473.8438
1353.0000	286550.8750
1352.5000	287898.0313
1352.0000	286762.4063
1351.5000	284741.7188
1351.0000	285604.5313
1350.5000	284140.5000
1350.0000	285064.5625
1349.5000	280538.8438
1349.0000	283016.0313
1348.5000	279987.7500
1348.0000	278930.0938
1347.5000	277399.2500
1347.0000	276079.9375
1346.5000	274059.2188
1346.0000	276892.6875
1345.5000	273981.2813
1345.0000	274203.9688
1344.5000	273313.2813
1344.0000	272795.5938
1343.5000	273218.6563
1343.0000	272467.1563
1342.5000	271142.2813
1342.0000	270446.4375
1341.5000	268531.5000
1341.0000	269188.3750
1340.5000	268681.8125
1340.0000	269077.0313
1339.5000	271292.5938
1339.0000	268987.9688
1338.5000	267412.5938
1338.0000	269166.1250
1337.5000	267028.5000
1337.0000	269655.9688
1336.5000	267913.5938
1336.0000	269255.1875
1335.5000	269717.2188
1335.0000	267852.3750
1334.5000	269433.3125
1334.0000	270953.0313
1333.5000	269739.4688
1333.0000	271693.3750
1332.5000	269767.3125
1332.0000	271994.0000
1331.5000	271554.2188
1331.0000	271465.1563
1330.5000	273012.6875
1330.0000	274320.8750
1329.5000	272817.8438
1329.0000	275367.4063
1328.5000	273513.6875
1328.0000	275050.0938
1327.5000	275267.1875
1327.0000	272823.4375
1326.5000	274187.2500
1326.0000	275740.3750
1325.5000	275378.5313
1325.0000	274270.7500
1324.5000	274794.0313
1324.0000	277354.7188
1323.5000	278245.3750
1323.0000	277265.6563
1322.5000	276753.5000
1322.0000	276130.0313
1321.5000	277176.5625
1321.0000	276747.9375
1320.5000	277137.5938
1320.0000	275328.4375
1319.5000	277905.8125
1319.0000	274487.8750
1318.5000	276686.7188
1318.0000	276130.0313
1317.5000	276235.8125
1317.0000	275556.6563
1316.5000	278646.1875
1316.0000	275729.2500
1315.5000	277855.7188
1315.0000	274348.6875
1314.5000	276113.3438
1314.0000	276169.0000
1313.5000	278835.4375
1313.0000	276374.9688
1312.5000	278735.2500
1312.0000	277978.1875
1311.5000	279614.7813
1311.0000	277816.7500
1310.5000	281919.4063
1310.0000	282169.9063
1309.5000	281986.1875
1309.0000	283928.9688
1308.5000	283956.8125
1308.0000	284001.3438
1307.5000	285955.2500
1307.0000	287970.3750
1306.5000	287758.8438
1306.0000	289284.1250
1305.5000	289484.5313
1305.0000	290163.6563
1304.5000	292468.2813
1304.0000	291533.0625
1303.5000	292562.9063
1303.0000	293915.5938
1302.5000	295674.6875
1302.0000	297589.6250
1301.5000	295374.0938
1301.0000	296771.3125
1300.5000	299515.6875
1300.0000	299627.0313
1299.5000	299059.2188
1299.0000	301285.9063
1298.5000	302961.4688
1298.0000	302677.5625
1297.5000	302577.3750
1297.0000	301575.3750
1296.5000	304280.7813
1296.0000	306835.9063
1295.5000	307849.0313
1295.0000	309775.0938
1294.5000	308862.1563
1294.0000	311767.9688
1293.5000	308333.3438
1293.0000	311088.8438
1292.5000	310855.0313
1292.0000	311317.0938
1291.5000	310326.2188
1291.0000	308049.4375
1290.5000	306635.5000
1290.0000	308238.6875
1289.5000	306696.7188
1289.0000	304074.8125
1288.5000	304748.3750
1288.0000	304765.0938
1287.5000	306891.5625
1287.0000	304158.3125
1286.5000	304781.7813
1286.0000	304575.8125
1285.5000	302777.7813
1285.0000	305533.2813
1284.5000	303852.1563
1284.0000	303507.0000
1283.5000	304737.2500
1283.0000	304230.6875
1282.5000	304080.3750
1282.0000	303161.8750
1281.5000	304497.8750
1281.0000	300512.1250
1280.5000	302822.3125
1280.0000	302432.6563
1279.5000	303495.8750
1279.0000	301914.9375
1278.5000	303707.4063
1278.0000	301419.5000
1277.5000	302827.8750
1277.0000	303378.9688
1276.5000	302521.7188
1276.0000	302582.9375
1275.5000	305232.6875
1275.0000	301057.6563
1274.5000	304392.1250
1274.0000	305861.7188
1273.5000	304275.2188
1273.0000	306396.1250
1272.5000	307659.7500
1272.0000	308238.6875
1271.5000	307860.1563
1271.0000	307759.9688
1270.5000	308455.8125
1270.0000	309775.0938
1269.5000	311083.2813
1269.0000	310704.7500
1268.5000	309318.6250
1268.0000	310097.9688
1267.5000	309686.0313
1267.0000	308923.4063
1266.5000	308038.3125
1266.0000	309474.5000
1265.5000	308116.2188
1265.0000	306440.6563
1264.5000	309580.2813
1264.0000	308667.3438
1263.5000	309218.4375
1263.0000	309318.6250
1262.5000	311200.1875
1262.0000	309352.0313
1261.5000	313226.4375
1261.0000	311929.4063
1260.5000	312647.5313
1260.0000	312491.6563
1259.5000	313154.0938
1259.0000	313232.0313
1258.5000	313955.6875
1258.0000	316071.0313
1257.5000	314501.2188
1257.0000	315792.6875
1256.5000	317484.9688
1256.0000	316377.1875
1255.5000	316332.6563
1255.0000	316822.5313
1254.5000	318281.0000
1254.0000	317167.6563
1253.5000	317173.2500
1253.0000	321376.0938
1252.5000	319622.5938
1252.0000	319110.4375
1251.5000	319672.6875
1251.0000	319867.5000
1250.5000	320908.4688
1250.0000	320223.7813
1249.5000	321275.8750
1249.0000	322940.3125
1248.5000	319683.8125
1248.0000	321120.0313
1247.5000	321008.6875
1247.0000	322339.1250
1246.5000	321648.8438
1246.0000	322968.1563
1245.5000	323368.9688
1245.0000	322289.0313
1244.5000	322032.9688
1244.0000	325139.1563
1243.5000	321081.0625
1243.0000	324476.7188
1242.5000	323368.9688
1242.0000	324137.1563
1241.5000	322634.1563
1241.0000	324075.9375
1240.5000	325684.6875
1240.0000	326870.4063
1239.5000	327677.5625
1239.0000	324638.1563
1238.5000	326475.1875
1238.0000	327527.2813
1237.5000	326926.0625
1237.0000	328456.9063
1236.5000	328935.6563
1236.0000	329291.9063
1235.5000	327254.5000
1235.0000	332036.2813
1234.5000	333517.0313
1234.0000	336556.4375
1233.5000	332860.1563
1233.0000	336311.5000
1232.5000	337063.0000
1232.0000	337018.4688
1231.5000	340480.9688
1231.0000	339328.6563
1230.5000	340202.6250
1230.0000	341978.4063
1229.5000	343782.0000
1229.0000	343999.0938
1228.5000	346827.0000
1228.0000	350901.8125
1227.5000	351703.4063
1227.0000	353011.5938
1226.5000	353774.2188
1226.0000	355650.1875
1225.5000	351363.8438
1225.0000	350462.0313
1224.5000	350328.4375
1224.0000	347539.5313
1223.5000	345574.4688
1223.0000	343598.3125
1222.5000	339807.4063
1222.0000	337330.2188
1221.5000	337452.6875
1221.0000	337085.2813
1220.5000	332815.6250
1220.0000	333283.2188
1219.5000	330182.5938
1219.0000	328657.3125
1218.5000	326180.1250
1218.0000	325745.9375
1217.5000	323129.5938
1217.0000	320802.7188
1216.5000	319756.1875
1216.0000	318731.9063
1215.5000	318648.4063
1215.0000	318336.6875
1214.5000	319205.0625
1214.0000	315976.4063
1213.5000	317757.7500
1213.0000	319171.6875
1212.5000	318542.6563
1212.0000	320385.2188
1211.5000	321470.7188
1211.0000	321576.5000
1210.5000	323636.1563
1210.0000	323558.2188
1209.5000	325462.0313
1209.0000	327365.8438
1208.5000	327042.9688
1208.0000	329726.1250
1207.5000	329898.6875
1207.0000	331858.1563
1206.5000	331373.8438
1206.0000	335331.7813
1205.5000	340519.9375
1205.0000	339913.1563
1204.5000	341315.9688
1204.0000	340820.5313
1203.5000	343904.4688
1203.0000	347867.9688
1202.5000	348051.6563
1202.0000	352271.2188
1201.5000	352176.5625
1201.0000	358093.9688
1200.5000	357821.1875
1200.0000	362135.3750
1199.5000	363939.0000
1199.0000	367078.5938
1198.5000	369984.4063
1198.0000	370991.9688
1197.5000	373090.6250
1197.0000	374237.3750
1196.5000	377521.7188
1196.0000	378445.7813
1195.5000	375066.8125
1195.0000	381223.5625
1194.5000	382242.2500
1194.0000	383745.2813
1193.5000	382320.1875
1193.0000	385610.0938
1192.5000	384496.7813
1192.0000	387291.2500
1191.5000	386912.7188
1191.0000	383990.1875
1190.5000	382932.5313
1190.0000	381663.3125
1189.5000	378946.7813
1189.0000	379108.2188
1188.5000	377020.7188
1188.0000	372968.1563
1187.5000	376580.9375
1187.0000	370362.9375
1186.5000	368175.2500
1186.0000	366282.5625
1185.5000	364673.7813
1185.0000	360381.8750
1184.5000	359207.3125
1184.0000	352093.0625
1183.5000	347350.2500
1183.0000	340542.1875
1182.5000	333661.7813
1182.0000	329219.5625
1181.5000	326592.0625
1181.0000	320702.5313
1180.5000	317651.9688
1180.0000	309652.6250
1179.5000	307498.3438
1179.0000	301202.4063
1178.5000	299070.3750
1178.0000	292106.4375
1177.5000	291310.4063
1177.0000	286378.3125
1176.5000	281262.5313
1176.0000	280416.3750
1175.5000	276681.1250
1175.0000	273257.6250
1174.5000	270179.2500
1174.0000	270279.4375
1173.5000	268175.2500
1173.0000	266176.8125
1172.5000	266716.7813
1172.0000	266405.0313
1171.5000	265497.6563
1171.0000	263365.6250
1170.5000	263660.6563
1170.0000	263911.1563
1169.5000	261445.1094
1169.0000	264289.6875
1168.5000	262101.9844
1168.0000	263165.2188
1167.5000	260281.6719
1167.0000	261261.4063
1166.5000	262641.9375
1166.0000	262035.1875
1165.5000	263309.9688
1165.0000	264222.8750
1164.5000	265269.4375
1164.0000	262664.2188
1163.5000	263070.5938
1163.0000	265458.6875
1162.5000	266778.0000
1162.0000	267290.1250
1161.5000	266421.7188
1161.0000	268152.9688
1160.5000	269555.7813
1160.0000	270730.3438
1159.5000	271531.9375
1159.0000	269717.2188
1158.5000	271960.5938
1158.0000	272884.6563
1157.5000	273947.9063
1157.0000	272756.6250
1156.5000	273413.5000
1156.0000	275083.5000
1155.5000	275217.0938
1155.0000	278373.4063
1154.5000	279792.9063
1154.0000	278456.9063
1153.5000	280021.1563
1153.0000	280410.8125
1152.5000	282453.7813
1152.0000	283912.2813
1151.5000	282398.1250
1151.0000	285203.7500
1150.5000	290241.5938
1150.0000	289835.2188
1149.5000	292585.1563
1149.0000	289757.2813
1148.5000	295017.8125
1148.0000	293692.9375
1147.5000	301369.4063
1147.0000	305154.7500
1146.5000	306835.9063
1146.0000	309229.5625
1145.5000	314579.1563
1145.0000	318492.5313
1144.5000	320151.4063
1144.0000	326007.5625
1143.5000	332893.5625
1143.0000	339401.0313
1142.5000	341633.2813
1142.0000	346298.1563
1141.5000	352610.7813
1141.0000	361489.6563
1140.5000	368175.2500
1140.0000	375066.8125
1139.5000	386612.1250
1139.0000	399788.4688
1138.5000	417379.1875
1138.0000	428245.3750
1137.5000	437174.3438
1137.0000	447739.9375
1136.5000	463610.5625
1136.0000	500406.3750
1135.5000	549259.6250
1135.0000	594878.6250
1134.5000	604948.8125
1134.0000	587569.5625
1133.5000	564668.2500
1133.0000	528612.7500
1132.5000	496164.5625
1132.0000	464239.5938
1131.5000	435682.4688
1131.0000	421754.6250
1130.5000	417841.2500
1130.0000	429570.2500
1129.5000	460398.5625
1129.0000	485153.6250
1128.5000	471938.3125
1128.0000	420735.9063
1127.5000	370429.7500
1127.0000	323101.7500
1126.5000	291861.5000
1126.0000	270958.5938
1125.5000	259903.1406
1125.0000	253495.8750
1124.5000	248291.0313
1124.0000	241071.0313
1123.5000	236667.7813
1123.0000	229898.6875
1122.5000	224242.9375
1122.0000	219817.4063
1121.5000	213977.9531
1121.0000	209424.4063
1120.5000	207420.3906
1120.0000	205054.5469
1119.5000	203896.6875
1119.0000	203006.0156
1118.5000	200601.2031
1118.0000	200395.2344
1117.5000	198168.5625
1117.0000	198079.5000
1116.5000	196938.3281
1116.0000	193598.3125
1115.5000	194394.3438
1115.0000	193008.2344
1114.5000	194321.9844
1114.0000	193876.6406
1113.5000	193637.2813
1113.0000	192780.0000
1112.5000	192952.5781
1112.0000	191744.5938
1111.5000	190180.3594
1111.0000	190325.0938
1110.5000	190614.5625
1110.0000	189512.3594
1109.5000	191165.6719
1109.0000	190892.8906
1108.5000	191288.1250
1108.0000	189952.1250
1107.5000	192846.8125
1107.0000	191232.4688
1106.5000	191594.2969
1106.0000	189645.9531
1105.5000	192100.8750
1105.0000	190636.8281
1104.5000	189133.8281
1104.0000	191343.7969
1103.5000	190414.1563
1103.0000	191288.1250
1102.5000	191655.5313
1102.0000	191087.7344
1101.5000	191455.1250
1101.0000	190152.5313
1100.5000	190764.8594
1100.0000	190970.8281
1099.5000	192301.2656
1099.0000	192206.6406
1098.5000	194177.2500
1098.0000	191098.8594
1097.5000	192473.8438
1097.0000	192262.2969
1096.5000	190286.1250
1096.0000	195819.4219
1095.5000	191505.2344
1095.0000	193475.8438
1094.5000	193570.4688
1094.0000	193397.9063
1093.5000	192896.9063
1093.0000	192947.0000
1092.5000	195819.4219
1092.0000	193364.5000
1091.5000	194077.0469
1091.0000	194622.5781
1090.5000	195145.8438
1090.0000	194989.9844
1089.5000	195902.9219
1089.0000	194845.2500
1088.5000	197494.9844
1088.0000	195118.0156
1087.5000	196108.8906
1087.0000	196520.8125
1086.5000	196526.3906
1086.0000	197016.2500
1085.5000	196999.5469
1085.0000	195340.6875
1084.5000	196838.1250
1084.0000	198430.1875
1083.5000	198485.8594
1083.0000	198279.8906
1082.5000	197901.3594
1082.0000	197155.4219
1081.5000	196593.1875
1081.0000	198664.0000
1080.5000	197044.0938
1080.0000	196403.9219
1079.5000	197801.1563
1079.0000	197500.5625
1078.5000	199593.6250
1078.0000	198730.7969
1077.5000	200300.5938
1077.0000	199421.0625
1076.5000	198652.8594
1076.0000	199972.1719
1075.5000	200428.6406
1075.0000	200428.6406
1074.5000	199092.6250
1074.0000	201681.1406
1073.5000	199732.7969
1073.0000	201085.5000
1072.5000	200612.3281
1072.0000	200796.0313
1071.5000	199281.8906
1071.0000	201497.4375
1070.5000	202816.7500
1070.0000	202449.3438
1069.5000	202571.8125
1069.0000	202543.9844
1068.5000	203301.0469
1068.0000	205177.0156
1067.5000	204926.5156
1067.0000	203117.3438
1066.5000	204152.7500
1066.0000	206028.7188
1065.5000	201397.2344
1065.0000	202343.5781
1064.5000	207253.3906
1064.0000	203273.2188
1063.5000	204575.8125
1063.0000	203367.8438
1062.5000	201163.4375
1062.0000	203011.5781
1061.5000	202905.8125
1061.0000	203996.8750
1060.5000	203367.8438
1060.0000	205054.5469
1059.5000	204843.0156
1059.0000	204659.3125
1058.5000	207403.7031
1058.0000	206568.6875
1057.5000	207442.6563
1057.0000	205104.6563
1056.5000	206924.9688
1056.0000	205065.6875
1055.5000	207993.7656
1055.0000	208711.8750
1054.5000	208311.0625
1054.0000	210331.7813
1053.5000	207275.6563
1053.0000	210381.8750
1052.5000	209118.2344
1052.0000	209969.9375
1051.5000	209001.3438
1051.0000	210387.4375
1050.5000	210777.1094
1050.0000	210509.9063
1049.5000	208127.3594
1049.0000	210649.0781
1048.5000	211818.0781
1048.0000	211584.2813
1047.5000	211278.1094
1047.0000	210192.6094
1046.5000	212129.8125
1046.0000	211367.1719
1045.5000	210365.1719
1045.0000	211506.3438
1044.5000	212452.6875
1044.0000	212252.2813
1043.5000	212931.4219
1043.0000	210459.8125
1042.5000	212074.1406
1042.0000	211957.2500
1041.5000	213688.4844
1041.0000	212564.0156
1040.5000	213688.4844
1040.0000	214701.6250
1039.5000	212452.6875
1039.0000	213927.8594
1038.5000	210142.5000
1038.0000	215336.2344
1037.5000	212224.4531
1037.0000	214028.0625
1036.5000	213137.3906
1036.0000	216221.3281
1035.5000	215152.5313
1035.0000	213504.7813
1034.5000	212452.6875
1034.0000	212786.6875
1033.5000	213404.5938
1033.0000	212675.3438
1032.5000	212792.2500
1032.0000	214785.1250
1031.5000	215352.9219
1031.0000	215007.7969
1030.5000	214540.1875
1030.0000	213593.8594
1029.5000	214250.7188
1029.0000	215725.8906
1028.5000	214105.9844
1028.0000	214879.7656
1027.5000	212859.0469
1027.0000	215341.7969
1026.5000	215197.0625
1026.0000	214234.0313
1025.5000	213371.1875
1025.0000	216416.1719
1024.5000	217702.0781
1024.0000	217785.5781
1023.5000	218509.2344
1023.0000	217818.9688
1022.5000	215636.8281
1022.0000	217924.7344
1021.5000	217178.7969
1021.0000	216082.1719
1020.5000	216616.5625
1020.0000	217228.9063
1019.5000	216026.5000
1019.0000	217045.2031
1018.5000	217785.5781
1018.0000	217830.1094
1017.5000	216789.1406
1017.0000	218386.7813
1016.5000	219594.7500
1016.0000	218665.1094
1015.5000	219110.4375
1015.0000	217646.4063
1014.5000	219633.7188
1014.0000	220502.1094
1013.5000	219032.5156
1013.0000	219205.0781
1012.5000	219761.7500
1012.0000	219694.9531
1011.5000	220691.3750
1011.0000	219349.8125
1010.5000	219605.8750
1010.0000	221186.8125
1009.5000	220090.1875
1009.0000	223374.5313
1008.5000	221075.4844
1008.0000	219572.4844
1007.5000	223235.3594
1007.0000	220173.6875
1006.5000	222071.9219
1006.0000	221966.1563
1005.5000	220401.9219
1005.0000	220958.5781
1004.5000	221287.0156
1004.0000	221982.8594
1003.5000	223469.1563
1003.0000	223602.7656
1002.5000	224382.0938
1002.0000	223697.3906
1001.5000	224794.0313
1001.0000	222116.4531
1000.5000	224337.5625
1000.0000	223012.6875
999.5000	223964.5938
999.0000	224966.5938
998.5000	225606.7656
998.0000	224593.6250
997.5000	224103.7656
997.0000	225295.0313
996.5000	224704.9688
996.0000	227321.3125
995.5000	226330.4375
995.0000	227209.9688
994.5000	226658.8750
994.0000	226920.5000
993.5000	227610.7813
993.0000	227137.6094
992.5000	229314.1875
992.0000	228468.0469
991.5000	229726.1250
991.0000	228384.5469
990.5000	229943.2188
990.0000	229520.1563
989.5000	230177.0156
989.0000	229898.6875
988.5000	229097.0781
988.0000	229069.2500
987.5000	228462.4844
987.0000	227432.6406
986.5000	229609.2188
986.0000	231284.7969
985.5000	232225.5625
985.0000	231101.0938
984.5000	231741.2656
984.0000	231462.9219
983.5000	233884.4375
983.0000	230015.5938
982.5000	232459.3594
982.0000	233561.5625
981.5000	231913.8281
981.0000	233260.9688
980.5000	232771.0938
980.0000	231462.9219
979.5000	229759.5156
979.0000	232064.1250
978.5000	231268.0938
